File: experimental_data/220722/fine_s00125_Theta_2-Theta.asc
*TYPE		=  Raw
*CLASS		=  ASCII CLASS
*SAMPLE		=
*COMMENT	=
*FNAME		=  fine_s00125_Theta_2-Theta.asc
*DATE		=  22-Jul-22 11:08

*GROUP_COUNT	=  1
*GONIO		=  SmartLab(In-plane), 0.000000
*ATTACHMENT	=  Z-Phi Stage
*ASC		=  0, 0, 0.000000, 0.000000
*I_MONOCHRO	=  Soller_slit_5.0deg, 0.000000
*FILTER		=  Cu_K-beta
*C_MONOCHRO	=  No_unit, 0.000000
*SLIT_NAME	=  0, Incident slit
*SLIT_NAME	=  1, Receiving slit # 1
*SLIT_NAME	=  2, Receiving slit # 2
*COUNTER	=  HyPix 3000(H), 0
*POS_FORMAT	=  0
*SCAN_AXIS	=  2theta/theta
*MEAS_MODE	=  Continuous Scanning
*TARGET		=  29
*XRAY_CHAR	=  K-ALPHA
*WAVE_LENGTH1	=  1.54059
*WAVE_LENGTH2	=  1.54441
*THICKNESS	=  0, 0.000000
*MU		=  0, 0.000000
*SCAN_MODE	=  2theta/theta
*SPEED_DIM	=  sec./step
*XUNIT		=  deg.
*YUNIT		=  counts
*SCALE_MODE	=  1
*REP_COUNT	=  0
*SE_COUNT	=  0
*STD_MATERIAL	=  Unknown, Unknown, 0.000000, 0.000000, 0.000000, 0.000000, 0.000000, 0.000000
*LATT_CONS	=  0, Unknown, Unknown, 0.000000, 0.000000, 0.000000, 0.000000, 0.000000, 0.000000
*SEC_COUNT	=  1
*TSPEC_SIZE	=  0
*EXTRA_SIZE	=  0
*MEMO		=

*BEGIN
*GROUP		=  0
*START		=  22
*STOP		=  25
*STEP		=  0.01
*OFFSET		=  0.000000
*SPEED		=  0.592275
*SLIT_SPEC	=  0, 1.000deg, 1, 0.000000
*SLIT_SPEC	=  1, 20.000mm, 20, 0.000000
*SLIT_SPEC	=  2, 20.100mm, 20.1, 0.000000
*KV		=  40
*MA		=  44
*LOW		=  0.000000
*HIGH		=  0.000000
*CTEMPER	=  0, 0.000000
*CTEMPER	=  1, 0.000000
*CTEMPER	=  2, 0.000000
*PAREX		=  0, 0.000000
*PAREX		=  1, 0.000000
*PAREX		=  2, 0.000000
*PAREX		=  3, 0.000000
*PAREX		=  4, 0.000000
*PAREX		=  5, 0.000000
*PAREX		=  6, 0.000000
*PAREX		=  7, 0.000000
*PAREX		=  8, 0.000000
*PAREX		=  9, 0.000000
*PAREX		=  10, 0.000000
*PAREX		=  11, 0.000000
*PAREX		=  12, 0.000000
*PAREX		=  13, 0.000000
*PAREX		=  14, 0.000000
*PAREX		=  15, 0.000000
*FULL_SCALE	=  66797.9
*INDEX		=  0, 0, 0
*COUNT		=  301
27620.6, 27595, 27304.4, 27416.6
27391.4, 27409.6, 27367.1, 27095.2
27229.7, 27416.5, 27261.2, 27285.2
27362.9, 27514.8, 27509.1, 27221.5
27274.3, 27471.7, 27152.9, 26879.8
27017.1, 27104.3, 27180.1, 27067.9
27176.6, 27149.3, 27302.6, 27320.9
27153.3, 27208.8, 27079.8, 27182.1
27324.1, 27132.1, 27205, 27136.6
27181.4, 26926.4, 26922.7, 26899.3
27088, 26871.4, 27039.5, 27022.4
26926.1, 26747.2, 26824.6, 26712.1
26943.8, 27052.9, 27146.3, 26895.7
27014.6, 27145.1, 26926, 26868.4
26843.2, 26647.2, 26947, 26924.3
26894.7, 26590.6, 26729.4, 26598
26536.8, 26702.6, 26550.5, 26675.5
26831.4, 26897.9, 26623.5, 26677
26625.7, 26929.7, 26683.6, 26725.7
26771.6, 26842.1, 26725.2, 26760.8
26977.5, 26838.2, 26830, 26955.8
26846.5, 26944.1, 27002.9, 26914
27014.1, 27006.5, 27054.3, 27067.7
27262, 27476.4, 27546.4, 27709.3
27996, 27960.6, 28113.4, 28188.4
28266.5, 28610.7, 29014.3, 29230
29533.2, 30226.4, 30489.4, 31061
31641.9, 32091.7, 32831.7, 32628.9
32968.9, 32549.6, 32322.5, 31699.5
31126.4, 30846.5, 30538.3, 30066.7
29473.5, 28958.7, 28674.4, 28286
27603.7, 27246, 26911.7, 27202.7
26988.9, 27161.8, 26798.9, 26915.5
26774.1, 26670, 26655.9, 26523.4
26609.5, 26598.1, 26595.1, 26519.5
26882.7, 26660.4, 27042.5, 26696.9
26980.3, 27383.9, 27328.5, 27478.3
27724.7, 27855.3, 28002.5, 28439.4
28634.1, 29310.5, 29828, 30198.9
30713.8, 30741.3, 30935.5, 31383.6
31122, 30925.8, 30638.9, 30149.2
29421.2, 28751.6, 28488.1, 28262.5
27656.2, 27193.6, 26828.6, 26541.5
26637.2, 26238.2, 26247.4, 26062.4
25719.8, 25673, 25616.7, 25399.1
25572.6, 25680, 25224.3, 25278.2
25345.6, 25063.7, 25126.6, 25026.4
24919.9, 25027.1, 25127.4, 25147.3
25241.3, 25036.2, 25056.1, 24703.9
25034.6, 25110.5, 25110.6, 25039.3
25091.2, 24875.9, 24829.7, 24838
24972.6, 25101.2, 24891.1, 24993
24779.6, 25183.2, 24998.8, 25138.3
25225.3, 25179.4, 25387.7, 25363.2
25443.7, 25716.2, 25886, 25951.5
26007.7, 25899.5, 26148, 26565.5
26628.8, 27002.1, 27373.7, 27308.1
27758.5, 28143, 28730.3, 29138.8
29761.8, 30428.4, 30696, 31422.6
31694.3, 31505.2, 31118.3, 31101.3
30348.7, 29700.7, 29213.6, 28906.6
27677.7, 27473.1, 26922.1, 26215.3
25763.3, 25443.3, 25086.9, 25063.4
24489.3, 24442.5, 24295.1, 24206
24302.9, 24284.1, 24064.7, 23792.1
23843, 23767, 23875.9, 23636
23752.6, 23828.8, 23625.2, 23456.5
23320.2, 23499.4, 23693.4, 23872.5
23345.9, 23574.6, 23365, 23381.6
23185.2, 23273.8, 23314.9, 23542.9
23184.7, 23212.5, 23218, 23512.1
23232.3, 22843.7, 23209.1, 23259.2
23185.3, 22884.8, 23186.7, 23192.8
22805.7, 23021.2, 23030, 22775.7
22863.2, 22926.2, 22992.1, 22977.1
23091.5
*END

*EOF