File: experimental_data/220722/s00124_Theta_2-Theta.asc
*TYPE		=  Raw
*CLASS		=  ASCII CLASS
*SAMPLE		=
*COMMENT	=
*FNAME		=  s00124_Theta_2-Theta.asc
*DATE		=  22-Jul-22 10:51

*GROUP_COUNT	=  1
*GONIO		=  SmartLab(In-plane), 0.000000
*ATTACHMENT	=  Z-Phi Stage
*ASC		=  0, 0, 0.000000, 0.000000
*I_MONOCHRO	=  Soller_slit_5.0deg, 0.000000
*FILTER		=  Cu_K-beta
*C_MONOCHRO	=  No_unit, 0.000000
*SLIT_NAME	=  0, Incident slit
*SLIT_NAME	=  1, Receiving slit # 1
*SLIT_NAME	=  2, Receiving slit # 2
*COUNTER	=  HyPix 3000(H), 0
*POS_FORMAT	=  0
*SCAN_AXIS	=  2theta/theta
*MEAS_MODE	=  Continuous Scanning
*TARGET		=  29
*XRAY_CHAR	=  K-ALPHA
*WAVE_LENGTH1	=  1.54059
*WAVE_LENGTH2	=  1.54441
*THICKNESS	=  0, 0.000000
*MU		=  0, 0.000000
*SCAN_MODE	=  2theta/theta
*SPEED_DIM	=  sec./step
*XUNIT		=  deg.
*YUNIT		=  counts
*SCALE_MODE	=  1
*REP_COUNT	=  0
*SE_COUNT	=  0
*STD_MATERIAL	=  Unknown, Unknown, 0.000000, 0.000000, 0.000000, 0.000000, 0.000000, 0.000000
*LATT_CONS	=  0, Unknown, Unknown, 0.000000, 0.000000, 0.000000, 0.000000, 0.000000, 0.000000
*SEC_COUNT	=  1
*TSPEC_SIZE	=  0
*EXTRA_SIZE	=  0
*MEMO		=

*BEGIN
*GROUP		=  0
*START		=  22
*STOP		=  36
*STEP		=  0.01
*OFFSET		=  0.000000
*SPEED		=  0.192275
*SLIT_SPEC	=  0, 1.000deg, 1, 0.000000
*SLIT_SPEC	=  1, 20.000mm, 20, 0.000000
*SLIT_SPEC	=  2, 20.100mm, 20.1, 0.000000
*KV		=  40
*MA		=  44
*LOW		=  0.000000
*HIGH		=  0.000000
*CTEMPER	=  0, 0.000000
*CTEMPER	=  1, 0.000000
*CTEMPER	=  2, 0.000000
*PAREX		=  0, 0.000000
*PAREX		=  1, 0.000000
*PAREX		=  2, 0.000000
*PAREX		=  3, 0.000000
*PAREX		=  4, 0.000000
*PAREX		=  5, 0.000000
*PAREX		=  6, 0.000000
*PAREX		=  7, 0.000000
*PAREX		=  8, 0.000000
*PAREX		=  9, 0.000000
*PAREX		=  10, 0.000000
*PAREX		=  11, 0.000000
*PAREX		=  12, 0.000000
*PAREX		=  13, 0.000000
*PAREX		=  14, 0.000000
*PAREX		=  15, 0.000000
*FULL_SCALE	=  68525.6
*INDEX		=  0, 0, 0
*COUNT		=  1401
8874.36, 8879.15, 8672.56, 8732.45
8816.06, 8729.47, 8788.26, 8794.28
8815.45, 8844.44, 8779.83, 8683.3
8591.9, 8606.05, 8866.98, 8689.88
8857.49, 8648.84, 8502.51, 8579.33
8644.89, 8559.87, 8553.74, 8717.78
8679.18, 8528.36, 8375.99, 8547.19
8570.91, 8495.05, 8512.41, 8478.07
8591.03, 8570.75, 8706.45, 8516.79
8548.02, 8608.01, 8642.1, 8630.43
8608, 8706.43, 8431.69, 8555.15
8684.19, 8702.86, 8693.44, 8790.22
9087.66, 9283.85, 9243.49, 9448.32
10133, 10230, 10568.7, 10425.9
10970.4, 10552.7, 10443.6, 10236.9
9152.98, 9112.21, 8884.97, 8995.06
8730.6, 8731.91, 8589.2, 8593.64
8614.96, 8544.41, 8744.84, 8765.16
8844.38, 8920.87, 8891.27, 9011.48
9603.23, 9797.44, 9904.64, 10130.1
9988.18, 10031.6, 9866.76, 9560.14
8819.84, 8633.57, 8559.65, 8483.14
8232.35, 8134.76, 8237.14, 8156.06
8146.47, 8272.42, 8106.2, 7981.72
7966.21, 7931.95, 7839.91, 8014.91
7940.11, 8028.01, 8060.14, 7917.63
7892.84, 8057.21, 8015.04, 8100.1
8135.55, 8341.7, 8173.01, 8475.74
8800.48, 8831.36, 9103.29, 9302.95
9972.89, 10293.6, 10465.1, 10564.7
9939.64, 9591.9, 9319.47, 9139.7
8204.29, 8216.36, 8068.42, 7810.88
7830.55, 7570.3, 7598.51, 7590.98
7491.01, 7561.14, 7467.67, 7634.79
7399.06, 7299.08, 7223.66, 7525.24
7379.03, 7426.4, 7353.95, 7226.74
7505.04, 7369.57, 7464.49, 7496.97
7305.59, 7344.1, 7335.18, 7341.8
7130.86, 7274.1, 7243.42, 7357.14
7150.01, 7161.29, 7196.47, 7280.54
7211.62, 7070.97, 7211.17, 7145.5
7216.68, 7059.56, 7044.69, 7141.01
7131.68, 7194.5, 7087.11, 7066.42
7107.64, 6981.18, 6996.16, 6959.98
6948.96, 6968.46, 6841.84, 6865.49
7070.31, 6955.1, 7015.35, 6940.33
6873.94, 6910.72, 7048.73, 7077.44
6843.54, 6804.45, 6921.09, 6939.89
6846.23, 6678.75, 6800.23, 6810.51
6925.96, 6771.93, 6857.59, 6783.77
6781.84, 6927.22, 6814.68, 6777.27
6696.15, 6601.33, 6736.44, 6728.91
6695.7, 6687.91, 6574.96, 6554.49
6691.01, 6660.12, 6521.98, 6635.48
6523.88, 6568.9, 6631.53, 6709.69
6583.23, 6666.7, 6634.19, 6641.77
6684.05, 6672.67, 6566.92, 6715.7
6965.23, 6852.56, 6858.38, 6825.86
6878.05, 6665.5, 6656.39, 6758.65
6493.52, 6401.13, 6378.86, 6460.99
6507.59, 6484.91, 6455.59, 6416.84
6390.44, 6359.75, 6326.41, 6367.12
6159.64, 6228.07, 6219.82, 6181.6
6243.68, 6356.61, 6395.86, 6219.01
6184.52, 6274.55, 6257.25, 6142.89
6184.18, 6131.19, 6092.28, 6260.94
6276.13, 6181.78, 6227.61, 6145.03
6212.61, 6160.37, 6070.88, 6077.93
6180.73, 6162.67, 6021.67, 6177.21
6259.73, 6075.15, 6052.75, 6034.93
6034.31, 6070.87, 5965.67, 6110.7
5913.25, 6027.49, 6053.51, 6038.97
6059.36, 5988.01, 6121.89, 6076.77
5895.4, 5947.95, 5900.71, 5957.3
6005.24, 5986.49, 5971.99, 5872.56
5935.33, 5827.61, 5894.7, 5953.31
5960, 6022.22, 5819.49, 5791.21
5809.49, 5793.77, 5712.47, 5737.29
5813.6, 5791.6, 5716.84, 5716.35
5745.11, 5853.1, 5872.1, 5840.76
5748.93, 5883.3, 5877.05, 5868.72
5848.39, 5795.94, 5807.91, 5768.13
5891.12, 5754.41, 5878.84, 5898.79
5955.05, 6009.13, 5958.71, 6005.18
5844.49, 5947.6, 5922.36, 5900.75
6103.86, 6111.39, 6007.06, 6006.36
5981.13, 6017.59, 5945.91, 6024.72
5842.43, 5854.56, 5820.75, 5805.1
5678.9, 5585.91, 5634.95, 5687.19
5476.09, 5639.6, 5549.46, 5678.46
5416.62, 5545.01, 5566.95, 5579.86
5424.3, 5394.96, 5386.81, 5517.01
5519.2, 5503.7, 5433.8, 5529.17
5362.11, 5404.65, 5461.89, 5438.44
5316.9, 5396.64, 5378.94, 5258.82
5377.88, 5411.73, 5425.71, 5326.76
5331.7, 5350.72, 5407.95, 5301.4
5242.48, 5315.74, 5274.29, 5317.38
5317.07, 5339.1, 5239.71, 5220.17
5247.88, 5276.9, 5224.21, 5314.02
5260.57, 5414.89, 5325.52, 5319.37
5275.97, 5282.78, 5253.06, 5259.34
5178.25, 5183.69, 5199.4, 5084.58
5114.81, 5127.8, 5115.39, 5170.08
5247.52, 5267.61, 5274.05, 5199.8
5124.75, 5082.23, 5164.87, 5047.72
5090.61, 5015.32, 5102.59, 5071.21
5067.15, 5101.86, 5082.22, 5067.56
4990.71, 5137.2, 5170.08, 5093.54
4972.81, 4996.02, 4984.96, 4989.96
5029.97, 5024.64, 5024.13, 4833.78
4916.08, 4976.03, 5044.78, 4896.78
5022.72, 5018.22, 5010.32, 4928.93
5024.69, 4976.23, 4962.13, 4999.34
4854.97, 4911.01, 4912.32, 4881.77
4862.99, 4865.49, 5095.55, 4899.44
4934.29, 4857, 4847.56, 4822.68
4863.54, 4942.1, 4828.48, 4906.13
4783.66, 4871.57, 4918.19, 4820.44
4907.56, 4843.68, 4900.13, 4792.84
4779.33, 4897.05, 4827.41, 4817.96
4741.58, 4698.11, 4741.61, 4790.98
4698.07, 4772.27, 4834.14, 4815.08
4847.87, 4756.09, 4728.97, 4655.19
4584, 4685.23, 4781.61, 4677.31
4666.29, 4699.01, 4780.63, 4699.28
4692.42, 4694.21, 4672.25, 4697.57
4609.33, 4741.6, 4665.1, 4643.19
4749.92, 4666.1, 4654.54, 4629.42
4450.72, 4526.99, 4732.04, 4633.33
4630.73, 4744.31, 4653.14, 4657.02
4584.1, 4542.88, 4600.49, 4533.84
4616.04, 4735.11, 4593.63, 4674.89
4590.07, 4497.87, 4613.01, 4600.53
4543.7, 4559.5, 4525.59, 4608.49
4538.24, 4548.57, 4590.5, 4591.19
4503.32, 4604.65, 4414.75, 4673.04
4536.91, 4612.08, 4670.81, 4540.01
4586.56, 4704.48, 4743.88, 4668.66
4845.3, 4882.27, 4851.35, 4790.03
5078.98, 5269.83, 5210.45, 5361.43
5173.62, 5151.89, 5136.77, 5079.31
4987.41, 4850.8, 4911.4, 4760.15
4738.25, 4601.18, 4676.71, 4658.77
4692.32, 4712.21, 4764.07, 4597.85
4651.74, 4611.07, 4672.23, 4744.67
4648.18, 4592.43, 4628.81, 4717.95
4652.01, 4653.18, 4610.33, 4631.94
4616.78, 4694.61, 4694.98, 4642.41
4648.04, 4823.41, 4869.9, 4926.28
5148.06, 4976.37, 5073.49, 5249.63
5359.76, 5594.67, 5584.89, 5651.87
5796.63, 5684.07, 5738.59, 5433.28
5111.57, 5055.3, 4960.84, 4900.65
4459.78, 4567.96, 4479.46, 4416.81
4399.15, 4362.14, 4329, 4393.56
4300.57, 4214.88, 4255.4, 4235.04
4207.36, 4185.79, 4251.01, 4215.44
4247.76, 4241.29, 4152.39, 4190.54
4176.89, 4109.43, 4215.54, 4211.31
4160.54, 4148.99, 4115.74, 4183.26
4073.11, 4140.83, 4191.12, 4136.05
4133.59, 4119.79, 4098.15, 4091.36
4163.85, 4121.93, 4032.67, 4129.61
4074.1, 4054.86, 4007.73, 4193.56
4046.27, 4126.15, 4087.22, 4035.24
4072.36, 4062.52, 4057.1, 4150.92
4147.97, 4181.08, 4177.78, 4246.18
4093.05, 4159.36, 4192.99, 4129.61
4153.27, 4179.95, 4150.98, 4127.22
4187.12, 4177.49, 4211.4, 4176.55
4075.83, 4110.94, 4184.67, 4142.73
3979.67, 4125.01, 4083.59, 4082.38
3928.38, 3936.61, 4017.51, 3919.9
3965.63, 3961.65, 3975.82, 3912
3942.3
*END

*EOF