File: experimental_data/220722/s00131_Theta_2-Theta.asc
*TYPE		=  Raw
*CLASS		=  ASCII CLASS
*SAMPLE		=
*COMMENT	=
*FNAME		=  s00131_Theta_2-Theta.asc
*DATE		=  22-Jul-22 10:38

*GROUP_COUNT	=  1
*GONIO		=  SmartLab(In-plane), 0.000000
*ATTACHMENT	=  Z-Phi Stage
*ASC		=  0, 0, 0.000000, 0.000000
*I_MONOCHRO	=  Soller_slit_5.0deg, 0.000000
*FILTER		=  Cu_K-beta
*C_MONOCHRO	=  No_unit, 0.000000
*SLIT_NAME	=  0, Incident slit
*SLIT_NAME	=  1, Receiving slit # 1
*SLIT_NAME	=  2, Receiving slit # 2
*COUNTER	=  HyPix 3000(H), 0
*POS_FORMAT	=  0
*SCAN_AXIS	=  2theta/theta
*MEAS_MODE	=  Continuous Scanning
*TARGET		=  29
*XRAY_CHAR	=  K-ALPHA
*WAVE_LENGTH1	=  1.54059
*WAVE_LENGTH2	=  1.54441
*THICKNESS	=  0, 0.000000
*MU		=  0, 0.000000
*SCAN_MODE	=  2theta/theta
*SPEED_DIM	=  sec./step
*XUNIT		=  deg.
*YUNIT		=  counts
*SCALE_MODE	=  1
*REP_COUNT	=  0
*SE_COUNT	=  0
*STD_MATERIAL	=  Unknown, Unknown, 0.000000, 0.000000, 0.000000, 0.000000, 0.000000, 0.000000
*LATT_CONS	=  0, Unknown, Unknown, 0.000000, 0.000000, 0.000000, 0.000000, 0.000000, 0.000000
*SEC_COUNT	=  1
*TSPEC_SIZE	=  0
*EXTRA_SIZE	=  0
*MEMO		=

*BEGIN
*GROUP		=  0
*START		=  22
*STOP		=  36
*STEP		=  0.01
*OFFSET		=  0.000000
*SPEED		=  0.192275
*SLIT_SPEC	=  0, 1.000deg, 1, 0.000000
*SLIT_SPEC	=  1, 20.000mm, 20, 0.000000
*SLIT_SPEC	=  2, 20.100mm, 20.1, 0.000000
*KV		=  40
*MA		=  44
*LOW		=  0.000000
*HIGH		=  0.000000
*CTEMPER	=  0, 0.000000
*CTEMPER	=  1, 0.000000
*CTEMPER	=  2, 0.000000
*PAREX		=  0, 0.000000
*PAREX		=  1, 0.000000
*PAREX		=  2, 0.000000
*PAREX		=  3, 0.000000
*PAREX		=  4, 0.000000
*PAREX		=  5, 0.000000
*PAREX		=  6, 0.000000
*PAREX		=  7, 0.000000
*PAREX		=  8, 0.000000
*PAREX		=  9, 0.000000
*PAREX		=  10, 0.000000
*PAREX		=  11, 0.000000
*PAREX		=  12, 0.000000
*PAREX		=  13, 0.000000
*PAREX		=  14, 0.000000
*PAREX		=  15, 0.000000
*FULL_SCALE	=  64665.9
*INDEX		=  0, 0, 0
*COUNT		=  1401
8148.64, 8533.96, 8253, 8307.31
8294.39, 8380.05, 8233.96, 8305.91
8323.71, 8410.93, 8300.96, 8371.19
8362.59, 8293.03, 8320.19, 8356.36
8364.83, 8318.58, 8060.69, 8136.45
8372.01, 8357.45, 8280.2, 8308.89
8176.82, 8336.7, 8265, 8269.65
8240.33, 8110.24, 8327.61, 8222.17
8250.59, 8159.61, 8232.93, 8097.25
8235.39, 8256.51, 8255.79, 8238.33
8175.72, 8298.77, 8258.25, 8276.23
8212.02, 8309.11, 8348.11, 8407.09
8426.14, 8609.76, 8625.94, 8808.58
9357.14, 9619.81, 9795.69, 9908.74
10188.5, 10080.5, 9990.56, 9885.14
8905.99, 8746.64, 8780.17, 8594.55
8341.14, 8243.39, 8030.15, 8145.7
8188.48, 8307.63, 8252.64, 8226.72
8470.1, 8514.35, 8390.28, 8543.85
9182.48, 9209.75, 9436.79, 9625.75
9604.31, 9544.19, 9352.62, 9223.44
8457.6, 8374.42, 8307.3, 8124.25
7908.04, 8081.39, 8026.6, 7926.16
7705.82, 7837.41, 7859.93, 7618.35
7610.13, 7765.73, 7685.47, 7639.6
7677.94, 7693.08, 7694.22, 7875.89
7652.15, 7713.54, 7744.3, 7790.99
8044.49, 8039.95, 7941.9, 8023.77
8326.91, 8386.11, 8596.23, 8673.79
9604.01, 9633.26, 10000.4, 10015
9415.17, 9227.01, 9039.05, 8721.26
7872.07, 7711.49, 7664.49, 7392.36
7413.88, 7558.88, 7516.19, 7335.03
7335.06, 7361.03, 7321.29, 7177.05
7146.11, 7373.09, 7149.62, 7214.55
7037.56, 7113.74, 7118.95, 7152.71
7127.96, 7086.33, 7056.37, 7165.58
7067.61, 7057.35, 7095.82, 6989.49
6908.96, 7048.38, 6926.53, 7046.85
7017.75, 6913.11, 6820.41, 6920.34
6922.22, 7026.56, 7108.03, 6880.76
6697.23, 6902.82, 6971.96, 7020.73
6782.76, 6925.49, 6858.79, 6875.59
6837.92, 6781.87, 6854.39, 6807.09
6692.94, 6818.21, 6763.96, 6707.95
6819.12, 6762.17, 6551.36, 6755.69
6708.54, 6772.57, 6846.52, 6658.6
6530.87, 6613.61, 6617.48, 6661.9
6615.62, 6656.81, 6644.04, 6625.93
6572.55, 6674.81, 6688.77, 6587.62
6505.77, 6603.5, 6572.38, 6641.72
6553.01, 6555.13, 6689.83, 6611.76
6643.58, 6498.87, 6527.59, 6576.33
6651.65, 6489.24, 6499.1, 6548.45
6638.43, 6699.99, 6523.11, 6576.06
6670.01, 6638.15, 6536.1, 6626.14
6823.84, 6848.75, 6755.2, 6882.83
6991.53, 6894.76, 7008, 7078.16
6829.31, 6816.99, 6625.54, 6658.74
6509.17, 6530.27, 6504.97, 6513.49
6455.3, 6220.06, 6370.29, 6470.87
6300.2, 6325.62, 6365.6, 6212.69
6201.11, 6352.34, 6113.63, 6285.46
6226.44, 6201.28, 6115.79, 6092.71
6149.37, 6127.82, 5986.68, 5994
6148.4, 5982.1, 6085.89, 6051.97
6024.65, 5928.37, 5931.4, 5922.32
5905.97, 5906.63, 5853.47, 5970.5
5932.56, 5869.02, 6005.02, 5901.81
6008.94, 5845.05, 5793.47, 5828.07
5817.01, 5765.23, 5767.04, 5817.96
5861.76, 5823.65, 5822.25, 5829.67
5845.92, 5790.43, 5844.14, 5720.29
5829.92, 5770.7, 5755.58, 5874.41
5754.69, 5694.34, 5794.39, 5730.91
5681.9, 5760.64, 5861.95, 5764.89
5644.9, 5690.49, 5742.52, 5648.7
5601.29, 5552.12, 5589.34, 5522
5623.11, 5637.5, 5739.71, 5647.67
5698.59, 5741.15, 5613.73, 5611.17
5700.78, 5515.73, 5578.36, 5687.03
5701.07, 5585.39, 5656.65, 5730.97
5774.79, 5677.66, 5666.51, 5660.11
5724.43, 5666.47, 5833.24, 5875.26
5831.93, 5672.95, 5713.27, 5710.01
5705.93, 5722.02, 5730.65, 5665.39
5759.3, 5699.42, 5761.41, 5629.73
5592.8, 5592.99, 5580.47, 5579.21
5347.64, 5414.9, 5407.51, 5387.33
5338.22, 5447.37, 5258.1, 5438.85
5374.63, 5295.46, 5283.02, 5348.96
5232.57, 5325.44, 5246.68, 5213.23
5163.7, 5254.49, 5257.48, 5208.42
5280.16, 5223.75, 5223.81, 5189.71
5213.59, 5218.52, 5187.34, 5126.32
5194.54, 5196.51, 5098.11, 5199.96
5223.07, 5057.88, 5146.82, 5142.75
5110.3, 5181.89, 5120, 5181.24
5105.43, 5059.59, 5118.31, 5094.49
5092.64, 5065.34, 5144.68, 4996.58
5097.04, 5003.99, 4942.42, 4903.45
4966.65, 5103.32, 4968.51, 4867.32
5034.52, 5063.23, 4953.49, 5000.35
4958.29, 4981.04, 4978.2, 5079.2
4944.99, 4960.21, 4986.04, 4999.46
4936.51, 4905.63, 4889.48, 4895.14
5006.51, 4993.17, 4952.49, 4852.69
4834.06, 4771.19, 4809.43, 4898.34
4797.08, 4835.98, 4899, 4747.63
4904.35, 4876.8, 4714.71, 4801.82
4768.89, 4817.91, 4944.54, 4815.54
4714.67, 4787.24, 4827.82, 4767.93
4657.27, 4846.41, 4731.23, 4818.92
4817.26, 4741.3, 4738.98, 4769.06
4831.09, 4734.9, 4713.96, 4704.64
4678.17, 4704.22, 4705.1, 4600
4674.77, 4684.54, 4812.72, 4700.99
4710.06, 4711.71, 4640.21, 4664.29
4639.43, 4672.5, 4682.78, 4658.54
4671.19, 4710.81, 4636.22, 4673.34
4674.3, 4620.48, 4660.83, 4634.46
4622.3, 4568.59, 4534.86, 4661.4
4661.61, 4609.16, 4607.96, 4587.5
4537.81, 4588.79, 4483.2, 4628.79
4635.8, 4569.04, 4573.25, 4483.48
4591.16, 4666.65, 4610.2, 4521.12
4502.36, 4509.73, 4494.51, 4498.35
4471.18, 4479.46, 4558.75, 4559.45
4483.13, 4565.33, 4457.83, 4436.62
4482.58, 4356.41, 4454.12, 4437.16
4560.04, 4426.84, 4433.3, 4430.43
4469.09, 4481.01, 4515.29, 4458.93
4387.62, 4401.52, 4449.04, 4413.67
4462.41, 4405.22, 4407.61, 4457.23
4442.15, 4422.3, 4440.08, 4434.36
4334.41, 4425.54, 4401.47, 4426.72
4306.96, 4396.23, 4439.57, 4396.37
4416.13, 4366.79, 4319.21, 4314.27
4462.38, 4549.33, 4478.74, 4460.97
4596.45, 4608.33, 4596.05, 4632.41
5019.53, 5091.26, 5151.83, 5181.4
5145.88, 5109.36, 5012.29, 5005.4
4840.1, 4760.26, 4683.63, 4609.47
4389.51, 4415.63, 4504.85, 4448.54
4633.82, 4537.32, 4635.09, 4542.53
4506.73, 4578.09, 4484.3, 4537.59
4668.08, 4521.39, 4517.87, 4510.96
4610.67, 4487.76, 4475.46, 4510.18
4573.02, 4489.22, 4556, 4606.4
4725.26, 4624.32, 4577.6, 4699.02
4934.71, 4906.26, 4824.64, 4921.67
5350.79, 5259.3, 5270.46, 5293.89
5661.21, 5715.81, 5533.01, 5311.57
5019.86, 4842.37, 4803.41, 4674.36
4493.37, 4360.46, 4249.95, 4392.88
4182, 4191.38, 4167.07, 4217.51
4175.8, 4148.49, 4014.74, 4050.1
4143.14, 4128.62, 4062.83, 4152.7
4110.53, 4047.51, 4009.71, 3988.67
4153.68, 4144.21, 4069.65, 4117.29
4096.99, 4083.23, 4114.22, 4094.98
4067.09, 3994.34, 4052.81, 4067.39
4083.78, 4108.01, 4067.96, 4013.58
3974.76, 3972.64, 3946.32, 4152.79
3950.53, 4012.58, 3906.8, 3906.37
3980.48, 4000.55, 4020.17, 4023.4
3978.9, 4000.08, 4003.27, 4034.46
4051.76, 3940.15, 4008.94, 4063.03
4013.09, 4112.3, 4030.23, 4055.72
4018.79, 4141.89, 3992.1, 3904.6
3988.97, 4118.23, 3963.91, 3918.13
4022.47, 4106.51, 4004.3, 4009.13
3951.95, 3919.96, 3945.03, 3950.06
3950.42, 3979.36, 3839.31, 3865.33
3806.11, 3888.27, 3870.14, 3832.83
3950.33
*END

*EOF