File: experimental_data/220722/s00125_Theta_2-Theta.asc
*TYPE		=  Raw
*CLASS		=  ASCII CLASS
*SAMPLE		=
*COMMENT	=
*FNAME		=  s00125_Theta_2-Theta.asc
*DATE		=  22-Jul-22 10:59

*GROUP_COUNT	=  1
*GONIO		=  SmartLab(In-plane), 0.000000
*ATTACHMENT	=  Z-Phi Stage
*ASC		=  0, 0, 0.000000, 0.000000
*I_MONOCHRO	=  Soller_slit_5.0deg, 0.000000
*FILTER		=  Cu_K-beta
*C_MONOCHRO	=  No_unit, 0.000000
*SLIT_NAME	=  0, Incident slit
*SLIT_NAME	=  1, Receiving slit # 1
*SLIT_NAME	=  2, Receiving slit # 2
*COUNTER	=  HyPix 3000(H), 0
*POS_FORMAT	=  0
*SCAN_AXIS	=  2theta/theta
*MEAS_MODE	=  Continuous Scanning
*TARGET		=  29
*XRAY_CHAR	=  K-ALPHA
*WAVE_LENGTH1	=  1.54059
*WAVE_LENGTH2	=  1.54441
*THICKNESS	=  0, 0.000000
*MU		=  0, 0.000000
*SCAN_MODE	=  2theta/theta
*SPEED_DIM	=  sec./step
*XUNIT		=  deg.
*YUNIT		=  counts
*SCALE_MODE	=  1
*REP_COUNT	=  0
*SE_COUNT	=  0
*STD_MATERIAL	=  Unknown, Unknown, 0.000000, 0.000000, 0.000000, 0.000000, 0.000000, 0.000000
*LATT_CONS	=  0, Unknown, Unknown, 0.000000, 0.000000, 0.000000, 0.000000, 0.000000, 0.000000
*SEC_COUNT	=  1
*TSPEC_SIZE	=  0
*EXTRA_SIZE	=  0
*MEMO		=

*BEGIN
*GROUP		=  0
*START		=  22
*STOP		=  36
*STEP		=  0.01
*OFFSET		=  0.000000
*SPEED		=  0.192275
*SLIT_SPEC	=  0, 1.000deg, 1, 0.000000
*SLIT_SPEC	=  1, 20.000mm, 20, 0.000000
*SLIT_SPEC	=  2, 20.100mm, 20.1, 0.000000
*KV		=  40
*MA		=  44
*LOW		=  0.000000
*HIGH		=  0.000000
*CTEMPER	=  0, 0.000000
*CTEMPER	=  1, 0.000000
*CTEMPER	=  2, 0.000000
*PAREX		=  0, 0.000000
*PAREX		=  1, 0.000000
*PAREX		=  2, 0.000000
*PAREX		=  3, 0.000000
*PAREX		=  4, 0.000000
*PAREX		=  5, 0.000000
*PAREX		=  6, 0.000000
*PAREX		=  7, 0.000000
*PAREX		=  8, 0.000000
*PAREX		=  9, 0.000000
*PAREX		=  10, 0.000000
*PAREX		=  11, 0.000000
*PAREX		=  12, 0.000000
*PAREX		=  13, 0.000000
*PAREX		=  14, 0.000000
*PAREX		=  15, 0.000000
*FULL_SCALE	=  67386.2
*INDEX		=  0, 0, 0
*COUNT		=  1401
8693.52, 8975.17, 8967.12, 8915.74
8938.77, 8748.11, 8759.9, 8806.11
8824.68, 8884.17, 8876.82, 8775.55
8721.35, 8653.04, 8774.58, 8802.58
8775.06, 8738.63, 8788.96, 8945.36
8719.81, 8771.33, 8815.35, 8779.74
8872.99, 8807.08, 8854.95, 8602.89
8748.12, 8708.42, 8581.48, 8656.91
8712.07, 8786.96, 8650.62, 8615.04
8618.52, 8695.01, 8715.67, 8718.46
8738.93, 8798.65, 8798.76, 8865.35
8841.4, 8789.55, 8753.68, 8838.59
9130.67, 8938.76, 8951.67, 9307.62
9767.4, 9833.81, 9947.94, 9970.73
10770.8, 10650.2, 10434.3, 10295.9
9484.73, 9456.61, 9227.85, 9123.37
8825.15, 8676.74, 8618.07, 8613.32
8706.84, 8629.04, 8634.41, 8665.85
8782.69, 8996.96, 8837.99, 8950.03
9451.45, 9392.83, 9738.96, 9743.63
9959.57, 9963.19, 9730.83, 9954.42
9010.48, 8847.78, 8793.2, 8688.47
8383.41, 8353.52, 8396.39, 8297.53
8179.65, 8206.94, 8120.06, 8100.73
8214.86, 8197.37, 8190.47, 8297.36
8130.27, 8131.19, 8145.31, 8140.83
8009.17, 8156.35, 8089.34, 8101.65
8304.11, 8332.68, 8390.63, 8399.77
8752.12, 8771.24, 8932.32, 8985.81
9522.17, 9967.55, 10077.8, 10250.4
9854.34, 9488.44, 9440.64, 9378.42
8327.98, 8367.38, 8284.96, 8147.07
7750.26, 7913.78, 7949.4, 7796.4
7735.01, 7555.53, 7645.45, 7589.61
7584.18, 7628.35, 7609.85, 7525.27
7585.9, 7595.56, 7538.51, 7333.1
7535.6, 7463.07, 7448.83, 7501.62
7497.5, 7421.97, 7378.68, 7473.54
7310.66, 7264.63, 7433.44, 7367.49
7419, 7407.8, 7342.07, 7359.02
7321.81, 7302.27, 7449.36, 7340.67
7250.21, 7190.71, 7272.34, 7409.21
7147.93, 7190.41, 7308.77, 7283.97
7203.04, 7057.32, 7210.84, 7174.06
7222.28, 7193.36, 7027.14, 6916.28
7064.31, 7076.21, 7000.14, 7146.86
7131.23, 6977.58, 6968.1, 7055.82
7196.56, 7099.49, 7056.29, 7036.92
6899.88, 6811.58, 6960.44, 6895.59
7116.14, 6878.29, 6960.35, 6943.69
6962.68, 6952.45, 7078.18, 6910.44
6892.06, 6815.8, 6833.3, 6902.87
6772.68, 6821.03, 6819.08, 6792.52
6747.21, 6625.69, 6882.17, 6723.76
6789.61, 6679.37, 6756.91, 6738.16
6662.32, 6769.24, 6852.06, 6836.32
6852.92, 6812.13, 6857.88, 6734.12
6792.4, 6969.98, 7026.11, 6952.45
6914.87, 6813.96, 6788.13, 6745.7
6770.51, 6628.44, 6739.84, 6653.05
6646.58, 6578.78, 6561.6, 6667.19
6569.06, 6438.97, 6452.47, 6430.16
6580.3, 6363.31, 6425.5, 6406.7
6347.34, 6451.66, 6413.36, 6418.51
6420.52, 6408.21, 6424.67, 6337.47
6378.86, 6380.99, 6420.54, 6430.75
6216.3, 6306.43, 6270.94, 6409.93
6279.61, 6158.06, 6337.52, 6202.12
6245.04, 6241.66, 6289.72, 6373.13
6274.56, 6070.33, 6230.18, 6251.97
6124.23, 6166.81, 6167.55, 6068.39
6105.05, 6094.47, 6168.86, 6044.35
6087.58, 6221.74, 6218.67, 6117.78
6039.98, 6196.67, 6091.73, 6157.82
6050.8, 6108.17, 5888.33, 6142.47
5952.94, 5933.82, 6074.59, 5988.07
6002.06, 5995.33, 6006.44, 5942.11
5902.93, 6049.87, 6004.03, 6036.16
5975.58, 5950.55, 5975.48, 5857.88
5935.56, 5897.51, 5981.77, 5936.94
5921.07, 5983.8, 5922.63, 5927.89
5951.01, 6021.66, 5931.21, 6020.44
5933.95, 6071.57, 6053.05, 6033.81
6010.92, 5912.9, 5974.78, 6036.21
6108.83, 5986.54, 6115.05, 6075.15
6070.66, 5978.75, 5953.13, 6004.38
6172.65, 6121.12, 6171.95, 6024.69
6046.15, 5933.17, 5937.19, 6009.31
5875.69, 5813.64, 5680.5, 5798.93
5571.79, 5633.62, 5596.75, 5508.17
5663.36, 5692.81, 5576.4, 5667.54
5606.2, 5705.83, 5652.84, 5708.92
5554.08, 5594.68, 5661.34, 5557.14
5588.84, 5565.23, 5502.99, 5572.38
5494.1, 5439.59, 5485.4, 5423.19
5400.32, 5405.8, 5459.22, 5443.23
5394.27, 5424.41, 5551.99, 5352.81
5496.44, 5446.32, 5395.37, 5554.02
5362.46, 5470.43, 5485.17, 5365.81
5501.69, 5502.47, 5452.49, 5442.69
5349.81, 5426.54, 5365.41, 5422.64
5418.61, 5473.25, 5226.11, 5447.32
5325.88, 5332.31, 5275.82, 5377.8
5321.83, 5334.98, 5284.03, 5332.66
5309.1, 5359.28, 5275.3, 5252.47
5284.56, 5207.45, 5168.16, 5285.11
5222.86, 5161.09, 5216.63, 5326.62
5270.13, 5191.73, 5141.58, 5237.44
5254.87, 5225.92, 5191.48, 5151.67
5057.13, 5199.65, 5073.08, 5011.59
5126.24, 5170.5, 5198.05, 5100.3
5042.4, 5222.9, 5206.96, 5173
4961.19, 5084.82, 5136.96, 5113.01
5084.41, 4999.46, 5136.23, 5111.64
5080.82, 5064.11, 5107.79, 5019.93
5088.42, 5020.61, 5173.08, 5139.35
5071.66, 5020.65, 4924.31, 4977.96
4971.69, 4981.82, 4984.53, 4982.72
4915.25, 5034.45, 4961.42, 4859.61
4865.49, 4957.52, 4871.07, 4858.88
4875.66, 4903.86, 4963.42, 4938.96
4856.99, 4966.65, 4718.47, 4844.93
4913.82, 4964.17, 4897.21, 4842.58
4908.95, 4945.8, 4887.98, 4870.79
4848.98, 4711.17, 4867.47, 4755.93
4810.56, 4897.62, 4829.73, 4841.89
4773.76, 4855.21, 4715.27, 4769.56
4885.14, 4834.28, 4728.2, 4814.07
4817.75, 4743.88, 4732.82, 4787.66
4765.33, 4812.51, 4749.49, 4725.42
4747.57, 4817.57, 4710.88, 4745.81
4728.83, 4727.53, 4716.69, 4633.12
4640.34, 4708.94, 4660.83, 4689.42
4633.39, 4692.84, 4647.82, 4656.58
4691.17, 4661.8, 4711.78, 4644.1
4740.85, 4655.22, 4587.6, 4695.44
4666.69, 4617.19, 4649.35, 4653.23
4576.25, 4648.79, 4620.18, 4663.09
4617.76, 4705.38, 4718.96, 4602.64
4742.35, 4825.98, 4787.79, 4893.39
5067.25, 5204.82, 5141.91, 5310.42
5357.6, 5300.49, 5195.42, 5148.65
4987.37, 4943.62, 4758.6, 4740.33
4728.99, 4666.16, 4671.17, 4659.88
4768.99, 4705.69, 4775.72, 4826.43
4705, 4715.96, 4729.21, 4769.21
4813.62, 4880.15, 4760.14, 4687.47
4605.58, 4663.49, 4758.59, 4747.14
4784.8, 4816.57, 4828.93, 4731.3
4849.87, 4835.52, 4859.96, 4862.63
4930.41, 4860.53, 4984.38, 5167.71
5272.85, 5311.8, 5431.77, 5425.11
5761.21, 5608.77, 5666.56, 5675.6
5174.2, 5174.25, 4970.49, 4852.3
4721.29, 4667.26, 4651.31, 4545.27
4459.73, 4307.32, 4367.75, 4486.69
4389.6, 4256.98, 4347.6, 4252.58
4236.56, 4273.2, 4425.32, 4421.4
4310.76, 4349.69, 4257.3, 4324.93
4236.36, 4245.43, 4196.62, 4257.53
4169.03, 4196.59, 4176.19, 4271.92
4203.79, 4190.4, 4178.32, 4137.09
4212.74, 4144.17, 4247.06, 4172.92
4296.9, 4207.9, 4214.99, 4220.63
4191.91, 4186.19, 4157.43, 4243.16
4222.74, 4146.43, 4257.16, 4198.1
4214.33, 4234.74, 4221.99, 4206.54
4203.93, 4252.03, 4188.32, 4260.39
4153.42, 4162.16, 4186.21, 4192.36
4252.27, 4335.26, 4206.23, 4210.6
4232.74, 4279.66, 4302.88, 4113.06
4158.03, 4219.84, 4125.62, 4191.43
4134.91, 4149.99, 4081.54, 4159.05
4172.71, 4166.64, 3999.78, 4109.04
4069.73, 4005.8, 4080.57, 3924.06
4003.64
*END

*EOF