File: experimental_data/220722/s00128_Theta_2-Theta.asc
*TYPE		=  Raw
*CLASS		=  ASCII CLASS
*SAMPLE		=
*COMMENT	=
*FNAME		=  s00128_Theta_2-Theta.asc
*DATE		=  22-Jul-22 10:30

*GROUP_COUNT	=  1
*GONIO		=  SmartLab(In-plane), 0.000000
*ATTACHMENT	=  Z-Phi Stage
*ASC		=  0, 0, 0.000000, 0.000000
*I_MONOCHRO	=  Soller_slit_5.0deg, 0.000000
*FILTER		=  Cu_K-beta
*C_MONOCHRO	=  No_unit, 0.000000
*SLIT_NAME	=  0, Incident slit
*SLIT_NAME	=  1, Receiving slit # 1
*SLIT_NAME	=  2, Receiving slit # 2
*COUNTER	=  HyPix 3000(H), 0
*POS_FORMAT	=  0
*SCAN_AXIS	=  2theta/theta
*MEAS_MODE	=  Continuous Scanning
*TARGET		=  29
*XRAY_CHAR	=  K-ALPHA
*WAVE_LENGTH1	=  1.54059
*WAVE_LENGTH2	=  1.54441
*THICKNESS	=  0, 0.000000
*MU		=  0, 0.000000
*SCAN_MODE	=  2theta/theta
*SPEED_DIM	=  sec./step
*XUNIT		=  deg.
*YUNIT		=  counts
*SCALE_MODE	=  1
*REP_COUNT	=  0
*SE_COUNT	=  0
*STD_MATERIAL	=  Unknown, Unknown, 0.000000, 0.000000, 0.000000, 0.000000, 0.000000, 0.000000
*LATT_CONS	=  0, Unknown, Unknown, 0.000000, 0.000000, 0.000000, 0.000000, 0.000000, 0.000000
*SEC_COUNT	=  1
*TSPEC_SIZE	=  0
*EXTRA_SIZE	=  0
*MEMO		=

*BEGIN
*GROUP		=  0
*START		=  22
*STOP		=  36
*STEP		=  0.01
*OFFSET		=  0.000000
*SPEED		=  0.192275
*SLIT_SPEC	=  0, 1.000deg, 1, 0.000000
*SLIT_SPEC	=  1, 20.000mm, 20, 0.000000
*SLIT_SPEC	=  2, 20.100mm, 20.1, 0.000000
*KV		=  40
*MA		=  44
*LOW		=  0.000000
*HIGH		=  0.000000
*CTEMPER	=  0, 0.000000
*CTEMPER	=  1, 0.000000
*CTEMPER	=  2, 0.000000
*PAREX		=  0, 0.000000
*PAREX		=  1, 0.000000
*PAREX		=  2, 0.000000
*PAREX		=  3, 0.000000
*PAREX		=  4, 0.000000
*PAREX		=  5, 0.000000
*PAREX		=  6, 0.000000
*PAREX		=  7, 0.000000
*PAREX		=  8, 0.000000
*PAREX		=  9, 0.000000
*PAREX		=  10, 0.000000
*PAREX		=  11, 0.000000
*PAREX		=  12, 0.000000
*PAREX		=  13, 0.000000
*PAREX		=  14, 0.000000
*PAREX		=  15, 0.000000
*FULL_SCALE	=  68479.4
*INDEX		=  0, 0, 0
*COUNT		=  1401
9003.17, 8879.57, 8887.19, 8907.95
8955.37, 8839.43, 8721.33, 8787.96
8971.53, 8991.63, 8769.75, 8783.84
8677.15, 8803.71, 8706.91, 8822.74
8752.37, 8772.97, 8796.55, 8690.05
8672.84, 8786.71, 8818.73, 8866.93
8650.71, 8651.64, 8642.49, 8645.7
8884.31, 8647.72, 8674.01, 8687.94
8781.61, 8761.66, 8630.4, 8705.98
8594.98, 8654.11, 8512.09, 8620.77
8656.95, 8551.32, 8589.24, 8617.26
8697.99, 8770.89, 8833.82, 8875.85
9228.18, 9232.8, 9229.71, 9537.43
9885.8, 10102.7, 10141.4, 10512.1
10832.8, 10947.9, 10672.6, 10407.9
9395.09, 9345.26, 9012.86, 9079.62
8768.68, 8629.75, 8561.14, 8605.07
8661.74, 8643.34, 8608.75, 8658.23
8995.68, 8960.1, 8981.09, 9051.81
9596.49, 9683.73, 10003.8, 10090.2
10282, 10194.8, 10086.3, 9827.99
8906.02, 8882.81, 8711.4, 8702.8
8382.71, 8435.56, 8377.9, 8229.49
8248.3, 8188.08, 8197.19, 8276.55
8176.66, 8118.62, 8188.76, 8206.48
8112.97, 8030.43, 8101.38, 8243.02
8132.29, 8232.03, 8110, 8204.56
8423.09, 8514.76, 8388.7, 8652.05
8774.13, 9235.16, 9206.47, 9105.84
10156.5, 10275.4, 10582.8, 10635.8
10034.8, 9721.02, 9703.42, 9435.4
8434.32, 8187.44, 8074.05, 7908.94
7894.92, 7878.78, 7820.01, 7733.71
7826.9, 7719.92, 7711.88, 7711.32
7755.6, 7751.21, 7721.77, 7570.86
7506.03, 7599.17, 7500.85, 7534.99
7551.98, 7500.5, 7548.34, 7499.38
7569.46, 7438.27, 7413.27, 7313.15
7402.98, 7465.01, 7445.9, 7437.95
7352.88, 7446.82, 7373.6, 7347.37
7425.46, 7473.54, 7464.74, 7454.26
7396.32, 7313.45, 7285.48, 7273.65
7268.38, 7226.21, 7227.54, 7237.15
7246.34, 7313.12, 7131.66, 7320.88
7092.8, 7157.77, 7129.86, 7119.05
7124.95, 7235.77, 7257.37, 7093.04
7205.01, 7017.13, 6997.48, 6945.81
7151.81, 7128.51, 7121.47, 7175.51
6953.93, 7035.15, 7126.54, 7133.2
6933.29, 7009.14, 7004.5, 7113.37
6999.22, 7005.89, 7029.51, 7042.74
6926.59, 6960.11, 6912.36, 6838.98
6968.87, 6929.44, 7029.27, 6982.32
6980.13, 6937.36, 7084.42, 7002.62
7002.25, 7044.03, 6930.21, 7080.9
7110.29, 7223.1, 7231.46, 7110.53
7288.35, 7353.13, 7377.54, 7334.8
7612.15, 7584.06, 7483.86, 7478.21
7436.73, 7341.74, 7296.92, 7359.65
7075.15, 7072.84, 7001.29, 6859.98
6868.41, 6650.09, 6990.53, 6860.93
6730.76, 6697.88, 6574.96, 6734.52
6568.94, 6581.82, 6670.14, 6595.2
6592.71, 6639.7, 6615.4, 6520.43
6448.99, 6633.21, 6407.43, 6384.86
6505.56, 6504.54, 6522.29, 6561.39
6395.63, 6409.81, 6465.24, 6504
6322.16, 6308.61, 6403.68, 6304.6
6417.21, 6342.46, 6338.82, 6224.4
6318.39, 6451.51, 6361.5, 6322.09
6267.56, 6257.13, 6270.59, 6238.11
6358.45, 6273.61, 6160.78, 6259.56
6158.47, 6302.42, 6236.09, 6185.54
6047.67, 6292.63, 6189.71, 6140.43
6115.47, 6094.77, 6139.65, 6137.86
6152.65, 5903.56, 6103.82, 5997.76
6099.98, 6134.78, 6073.99, 6017.96
6129.28, 6040.35, 6181.63, 6051.2
6032.63, 6053.74, 6002.08, 6039.89
5907.99, 5928.53, 6018.07, 6101.53
6052.93, 5992.72, 5979.72, 5958.8
6010.46, 6025.47, 6125.45, 5950.27
5989.03, 6178.73, 6100.67, 6132.55
5943.72, 6139.34, 6116.89, 6195.06
6086.9, 6098.61, 6190.92, 6188.7
6025.62, 6171.02, 6124.8, 6134.67
6145.97, 6107.28, 6146.05, 6199.71
5956.4, 5974.17, 6008.7, 5977.03
5820.69, 5966.76, 5792.56, 5769.98
5716.25, 5764.42, 5673.6, 5713.64
5721.92, 5711.18, 5718.34, 5585.33
5763.04, 5700.84, 5561.69, 5604.57
5558.42, 5618.89, 5466.64, 5665.91
5613.3, 5575.14, 5693.15, 5540.11
5547.81, 5598.91, 5552.08, 5519.86
5705.27, 5553.24, 5558.14, 5461.51
5464.2, 5599.27, 5488.24, 5612.86
5471.83, 5487.14, 5480.23, 5489.92
5476.75, 5536.65, 5392.36, 5442.69
5451.78, 5443.24, 5461.89, 5452.26
5391.65, 5368.6, 5418.17, 5313.27
5391.88, 5444.08, 5437.45, 5484.2
5364.35, 5362.03, 5458.17, 5530.7
5252.4, 5493.97, 5299.26, 5445.17
5299.94, 5292.54, 5300.23, 5300.15
5270.31, 5256.81, 5350.56, 5298.29
5295.34, 5288.63, 5257.16, 5343.43
5238.13, 5273.43, 5164.23, 5252.5
5374.08, 5283, 5229.48, 5307.41
5337.47, 5276.68, 5207.97, 5182.61
5135.06, 5314.49, 5154.48, 5219.23
5180.34, 5201.45, 5118.51, 5237.71
5190.93, 5184.99, 5128.95, 5198.62
5119.95, 5115.38, 5182, 5149.03
5120.73, 5073.43, 5114.75, 5086.12
5174.67, 5076.24, 5051.92, 5107.27
5126.93, 5116.16, 5152.09, 5059.13
5122.81, 5038.87, 4990.71, 5136.92
5061.41, 4970.59, 5134.52, 5085.89
5022.44, 5083.99, 5169.18, 5094.52
4903.88, 5038.82, 5109.68, 4922.92
4975.94, 4986.56, 4968.58, 4962.08
4945.39, 5001.99, 4907.87, 4875.97
4965.62, 4930.76, 4950.87, 4897.04
4960.28, 4869.83, 4843.43, 4844.96
4968.13, 4876.29, 4878.53, 4799.9
5072.74, 4742.12, 4791.63, 4786.6
4797.27, 4835.84, 4885.06, 4899.4
4807.72, 4778.5, 4757.98, 4847.74
4901.35, 4799.35, 4841.43, 4890.46
4836.99, 4792.93, 4885.23, 4870.68
4742.79, 4786.79, 4726.91, 4757.12
4731.34, 4761.67, 4677.44, 4807.19
4586.6, 4712.45, 4824.13, 4758.71
4831.87, 4726.21, 4806.99, 4753.59
4718.24, 4725.56, 4645.49, 4683.17
4866.3, 4790.33, 4682.89, 4733.15
4796.5, 4710.03, 4736.24, 4793.44
4771.3, 4830.78, 4707.31, 4789.11
4900.34, 4947.32, 5002.97, 5071.65
5275.66, 5319.28, 5319.37, 5485.11
5605.74, 5352.61, 5383.4, 5407.97
5189.51, 5147.52, 5126.78, 5106.66
4909.24, 4856.98, 4885.24, 4910.11
4917.76, 4990.12, 4947.09, 4926.68
4851.81, 4891.99, 4797.85, 5059.05
4938.08, 4921.13, 5024.72, 4962.08
4931.17, 4863.41, 4983.92, 4930.5
4992.52, 5001.16, 4978.51, 5017.39
5101.04, 5051.66, 5072.48, 4980.84
5303.15, 5313.92, 5177.46, 5184.34
5623.01, 5735.19, 5788.74, 5810.18
5949.23, 6075.2, 6088.6, 5860.52
5447.87, 5386.4, 5180.73, 4995.11
4776.26, 4730.68, 4726.64, 4734.96
4457.21, 4513.03, 4410.98, 4453.17
4428.53, 4511, 4486.63, 4441.3
4289.29, 4376.52, 4290.2, 4403.01
4440.54, 4440.86, 4415.57, 4295.45
4356.33, 4309.32, 4389.46, 4421.85
4388.98, 4344.06, 4367.12, 4272.58
4348.67, 4242.99, 4319.04, 4254.71
4284.81, 4333.63, 4378.52, 4292.02
4221.37, 4291.41, 4181.55, 4308.87
4298.95, 4147.69, 4272.41, 4324.44
4278.69, 4223.97, 4279.97, 4215.24
4213.22, 4140.22, 4319.94, 4287.03
4358.52, 4286.83, 4348.99, 4312.35
4348.66, 4347.61, 4357.67, 4318.41
4362.09, 4276.91, 4195.5, 4341.03
4355.32, 4252.75, 4262.53, 4358.44
4229.6, 4284.3, 4296.62, 4269.65
4106, 4186.62, 4196.19, 4172.66
4050.15, 4131, 4143.2, 4171.26
4126.13, 4091.03, 4069.68, 4082.85
3990.72
*END

*EOF