File: experimental_data/220722/s00129_Theta_2-Theta.asc
*TYPE		=  Raw
*CLASS		=  ASCII CLASS
*SAMPLE		=
*COMMENT	=
*FNAME		=  s00129_Theta_2-Theta.asc
*DATE		=  22-Jul-22 10:13

*GROUP_COUNT	=  1
*GONIO		=  SmartLab(In-plane), 0.000000
*ATTACHMENT	=  Z-Phi Stage
*ASC		=  0, 0, 0.000000, 0.000000
*I_MONOCHRO	=  Soller_slit_5.0deg, 0.000000
*FILTER		=  Cu_K-beta
*C_MONOCHRO	=  No_unit, 0.000000
*SLIT_NAME	=  0, Incident slit
*SLIT_NAME	=  1, Receiving slit # 1
*SLIT_NAME	=  2, Receiving slit # 2
*COUNTER	=  HyPix 3000(H), 0
*POS_FORMAT	=  0
*SCAN_AXIS	=  2theta/theta
*MEAS_MODE	=  Continuous Scanning
*TARGET		=  29
*XRAY_CHAR	=  K-ALPHA
*WAVE_LENGTH1	=  1.54059
*WAVE_LENGTH2	=  1.54441
*THICKNESS	=  0, 0.000000
*MU		=  0, 0.000000
*SCAN_MODE	=  2theta/theta
*SPEED_DIM	=  sec./step
*XUNIT		=  deg.
*YUNIT		=  counts
*SCALE_MODE	=  1
*REP_COUNT	=  0
*SE_COUNT	=  0
*STD_MATERIAL	=  Unknown, Unknown, 0.000000, 0.000000, 0.000000, 0.000000, 0.000000, 0.000000
*LATT_CONS	=  0, Unknown, Unknown, 0.000000, 0.000000, 0.000000, 0.000000, 0.000000, 0.000000
*SEC_COUNT	=  1
*TSPEC_SIZE	=  0
*EXTRA_SIZE	=  0
*MEMO		=

*BEGIN
*GROUP		=  0
*START		=  22
*STOP		=  36
*STEP		=  0.01
*OFFSET		=  0.000000
*SPEED		=  0.192275
*SLIT_SPEC	=  0, 1.000deg, 1, 0.000000
*SLIT_SPEC	=  1, 20.000mm, 20, 0.000000
*SLIT_SPEC	=  2, 20.100mm, 20.1, 0.000000
*KV		=  40
*MA		=  44
*LOW		=  0.000000
*HIGH		=  0.000000
*CTEMPER	=  0, 0.000000
*CTEMPER	=  1, 0.000000
*CTEMPER	=  2, 0.000000
*PAREX		=  0, 0.000000
*PAREX		=  1, 0.000000
*PAREX		=  2, 0.000000
*PAREX		=  3, 0.000000
*PAREX		=  4, 0.000000
*PAREX		=  5, 0.000000
*PAREX		=  6, 0.000000
*PAREX		=  7, 0.000000
*PAREX		=  8, 0.000000
*PAREX		=  9, 0.000000
*PAREX		=  10, 0.000000
*PAREX		=  11, 0.000000
*PAREX		=  12, 0.000000
*PAREX		=  13, 0.000000
*PAREX		=  14, 0.000000
*PAREX		=  15, 0.000000
*FULL_SCALE	=  72935.5
*INDEX		=  0, 0, 0
*COUNT		=  1401
8638.44, 8572.69, 8710.23, 8627.26
8769.16, 8660.15, 8466.99, 8639.97
8397.86, 8509.53, 8543.17, 8700.4
8657.13, 8723.38, 8683.21, 8713.02
8448.67, 8559.22, 8573.7, 8565.99
8532.24, 8565.67, 8565.31, 8386.33
8615.61, 8608.77, 8523.9, 8486.33
8442.72, 8422.27, 8571.68, 8478.15
8474.12, 8435.39, 8576.26, 8521.7
8603.75, 8464.11, 8563.53, 8429.88
8370.47, 8403.29, 8465.63, 8644.34
8606.69, 8692.58, 8609.39, 8888.9
9005.66, 9118.54, 9239.09, 9370.16
10154.3, 10468.8, 10682.1, 11333
11619.5, 11305, 11252.3, 10907.1
9661.43, 9389.05, 9111.84, 9002.63
8672.08, 8499.03, 8580.89, 8563.92
8686.59, 8482.06, 8441.86, 8545.98
8913.13, 8892.33, 8924.08, 9138.79
9963.69, 9985.76, 10181.5, 10412.3
10553.9, 10451, 10250, 9880.61
9087.38, 8800.85, 8718.37, 8474.71
8287.41, 8260.18, 8151.64, 8153.04
8053.5, 8073.77, 8181.31, 8218.49
7962.72, 7877.39, 7981.55, 8024.25
8004.15, 8058.38, 7917.37, 7987.54
8015.33, 8078.92, 8083.06, 7916.19
8205.11, 8275.78, 8372.24, 8338.82
9067.28, 9094.83, 9228.81, 9512.76
10736.4, 10961.6, 11132, 11368.3
10436.2, 10183.5, 9932.97, 9650.93
8242.54, 8190.11, 7975.87, 8020.41
7750.18, 7639.37, 7807.59, 7638.54
7555.55, 7625.44, 7496.43, 7607.17
7410.52, 7397.63, 7585.05, 7464.2
7322.88, 7348.81, 7490.52, 7385.31
7316.97, 7313.5, 7403.84, 7330.52
7220.66, 7294.53, 7276.01, 7185.01
7158.52, 7241.31, 7231, 7140.24
7208.09, 7378.45, 7192.48, 7088.28
7066.51, 7250.09, 7143.63, 7042.92
7223.19, 7231.19, 7112.51, 7242.85
7043.03, 7096.05, 7048.5, 7074.09
7023.71, 7062.95, 6873.45, 6925
6929.79, 6946.91, 6832.81, 6984.88
7046.81, 6968.48, 6864.5, 6908.32
6783.88, 6813.75, 6975.87, 6944.1
6845.47, 6932.01, 6931.11, 7047.11
6796.18, 6812.69, 6832.11, 6766
6813.71, 6776.85, 6896.58, 6832.2
6762.32, 6700.96, 6825.21, 6767.86
6735.4, 6739.68, 6811.3, 6727.18
6658.35, 6686.64, 6582.77, 6740.38
6589.9, 6537.26, 6730.94, 6717.6
6747.68, 6568.55, 6717.83, 6703.53
6727.15, 6597.64, 6631.97, 6770.06
6614.21, 6694.29, 6733.86, 6796.86
6883.09, 6982.31, 7068.1, 6991.82
6785.59, 6771.51, 6718.71, 6592.75
6518.62, 6473.53, 6592.01, 6524.45
6413.56, 6369.72, 6481.01, 6478.77
6355.33, 6418.36, 6333.65, 6257.27
6333.95, 6229.82, 6367.19, 6346.46
6124.2, 6341.36, 6319.5, 6258.3
6282.88, 6365.82, 6322.71, 6296.44
6271.37, 6289.64, 6303.91, 6219.12
6203.09, 6159.75, 6122.02, 6105.57
6109.35, 6286.74, 6123.57, 6075.94
6196.7, 6081.82, 6088.37, 6062.68
6013.28, 6185.17, 6066.16, 6163.41
6149.52, 6017.91, 6113.22, 6240.31
6066.66, 6169.91, 6112.39, 5848.26
5975.31, 5982.24, 5928.04, 5913.64
5900.66, 5957.79, 6053.38, 5980.39
5984.93, 6042.31, 5968.35, 5924.05
5997.69, 6055.12, 5947.59, 5890.75
6009.11, 6027.56, 5860, 5881.45
5863.28, 5852.45, 5884.73, 5827.09
5902.06, 5874.84, 5848.74, 5733.78
5891.38, 5918.65, 5764.59, 5720.6
5898.61, 5811.78, 5780.67, 5842.64
5825.05, 5797.72, 5724.37, 5890.46
5948.98, 5935.36, 5866.44, 6027.75
6060.69, 5994.55, 5995.56, 6046.23
6019.83, 6114.83, 6008.31, 6131.8
5971.43, 6057.73, 6042.41, 6123.74
6028.04, 6095.03, 6111.64, 6180.61
5849.83, 5852.53, 5771.54, 5900.51
5761.25, 5826.96, 5705.58, 5693.01
5635.98, 5517.58, 5527.88, 5554.3
5532.08, 5512.91, 5554.67, 5626.44
5537.04, 5519.82, 5437.71, 5469.49
5474.42, 5473.14, 5538.97, 5563.49
5604.01, 5522.05, 5377.64, 5494.24
5385.79, 5373.29, 5407.92, 5313.22
5397.57, 5495.01, 5340.16, 5372.22
5382.3, 5399.91, 5284.96, 5358.93
5311.26, 5355.42, 5224.97, 5316.13
5356.74, 5412.53, 5349.13, 5199.14
5268.98, 5282.65, 5235.68, 5293.39
5202.81, 5251.11, 5257.62, 5230.94
5205.54, 5218.61, 5259.65, 5330.18
5281.52, 5251.71, 5349.13, 5278.43
5155.6, 5139.77, 5216.25, 5332.52
5292.57, 5157.24, 5130.21, 5035.88
5092.95, 5133.76, 5006.27, 5201.02
5115.17, 4970.79, 5084.74, 5043.69
5175.93, 5061.02, 5031.43, 4998.63
5029.47, 5081.17, 5068.04, 5183.5
5110.06, 5129.99, 5107.87, 4982.46
5022.59, 5082.28, 5001.54, 4869.25
5139.34, 5170.61, 5064.45, 5130.83
5010.48, 4990.23, 4907.19, 5061.53
4805.52, 4978.45, 4975.25, 5106.77
4970.64, 4951.93, 4906.7, 4829.96
5022.47, 4926.75, 4892.54, 4883.94
4847.28, 4974.99, 4870.09, 4877.55
4806.49, 4865.28, 4812.69, 4994.35
4843.39, 4817.7, 4771.88, 4825.05
4829.81, 4998.15, 4903.66, 4747.53
4821.78, 4874.06, 4789.67, 4811.11
4772.77, 4832.97, 4867.24, 4747.65
4775.63, 4808.06, 4800.2, 4734.21
4787.61, 4851.9, 4863.5, 4838.19
4733.88, 4666.24, 4642.81, 4717.97
4662.42, 4575.89, 4775.46, 4628.42
4559.97, 4791.18, 4753.01, 4723.21
4796.04, 4736.59, 4739.34, 4775.44
4659.85, 4642.52, 4490.95, 4702.41
4640.14, 4655.59, 4616.62, 4571.84
4526.44, 4668.91, 4584.56, 4577.45
4708.09, 4651.18, 4616.05, 4590.75
4639.04, 4575.6, 4551.24, 4613.16
4519.37, 4539.48, 4574.87, 4571.07
4583.29, 4479.4, 4540.67, 4539.96
4616.98, 4579.43, 4574.55, 4514.97
4597.12, 4453.77, 4584.53, 4545.22
4631.2, 4601.85, 4471.74, 4404.6
4615.1, 4665.34, 4659.91, 4681.47
4684.59, 4786.71, 4826.53, 4805.37
5318.49, 5455.52, 5489.4, 5607.79
5382.86, 5470.54, 5404.49, 5337.27
5053.9, 4987.48, 4992.02, 4811.66
4730.87, 4635.01, 4669.56, 4671.62
4737.51, 4752.25, 4749.23, 4687.3
4691.52, 4726.7, 4724.11, 4735.24
4654.14, 4751.01, 4663.21, 4799.04
4730.21, 4640.95, 4694.84, 4726.52
4645.5, 4734.78, 4641.64, 4865.24
4841.59, 4790.22, 4810.39, 4821.21
5055.56, 5028.24, 5100.52, 5176.4
5697.44, 5781.79, 5853.61, 5927.27
6229.62, 6107.47, 5986.5, 5907.51
5389.66, 5289.98, 5097.71, 5168.28
4573.87, 4611.72, 4465.3, 4510.37
4394.83, 4342.57, 4329.37, 4385.42
4382.07, 4250.52, 4315.5, 4276.47
4254.38, 4293.45, 4173.28, 4234.69
4213.54, 4185.7, 4136.01, 4235.35
4222.69, 4144.7, 4133.65, 4156.21
4180.75, 4135.57, 4162.36, 4184.28
4145.24, 4032.45, 4087.13, 4153.41
4151.4, 4086.61, 4123.14, 4081.88
4124.57, 4185.87, 4059.46, 4147.05
4126.99, 4105.75, 4170.79, 4177.42
4112.61, 4168.74, 4093.16, 4109.29
4044.05, 4062.02, 4122.93, 4116.51
4159.7, 4083.74, 4206.69, 4218.61
4249.59, 4093.88, 4097.48, 4175.87
4186.27, 4169.84, 4190.22, 4104.26
4080.47, 4207.53, 4188.07, 4106.11
4128.01, 4108.89, 4231.11, 4156.05
4163.14, 4062.37, 4065.1, 4049.32
4104.2, 3973.86, 4028.44, 4042.57
3848.11, 4042.65, 3954.75, 4014.98
3888.87
*END

*EOF